# wavelength[angstrom] transmittance
4851.5 0.0036
4855.7 0.0018
4859.8 0.0059
4864.0 0.0009
4868.1 0.0061
4872.3 0.0006
4876.5 0.0033
4880.6 0.0009
4884.8 0.0023
4888.9 0.0044
4893.1 0.0010
4897.3 0.0023
4901.4 0.0072
4905.6 0.0109
4909.8 0.0242
4913.9 0.0499
4918.1 0.0995
4922.2 0.1828
4926.4 0.3028
4930.6 0.4456
4934.7 0.5899
4938.9 0.7167
4943.1 0.8026
4947.2 0.8451
4951.4 0.8700
4955.6 0.8943
4959.7 0.9073
4963.9 0.9128
4968.1 0.9177
4972.2 0.9200
4976.4 0.9110
4980.6 0.8670
4984.8 0.8015
4988.9 0.7303
4993.1 0.6347
4997.3 0.5049
5001.4 0.3459
5005.6 0.1899
5009.8 0.0914
5014.0 0.0491
5018.1 0.0290
5022.3 0.0175
5026.5 0.0138
5030.7 0.0103
5034.8 0.0036
5039.0 0.0027
5043.2 0.0034
5047.4 0.0000
5051.5 0.0001
5055.7 0.0016
5059.9 0.0001
5064.1 0.0014
5068.3 0.0016
5072.4 0.0051
5076.6 0.0006
5080.8 0.0026
5085.0 0.0005
5089.2 0.0025
5093.3 0.0003
5097.5 0.0000